Data from JAZA31041_14-59-40-440.txt Node
Date: Tue Feb 07 14:59:40 PST 2023
User: baumgardner
Spectrometer: JAZA3104
Trigger mode: 0
Integration Time (sec): 4.000000E-1
Scans to average: 5
Electric dark correction enabled: true
Nonlinearity correction enabled: false
Boxcar width: 0
XAxis mode: Wavelengths
Number of Pixels in Spectrum: 2048
>>>>>Begin Spectral Data<<<<<
188.763	-75.21
189.222	-75.21
189.681	-75.21
190.14	-45.36
190.599	-14.58
191.057	22.27
191.516	-21.11
191.975	-9.45
192.434	-3.85
192.893	5.01
193.351	26
193.81	16.21
194.269	-6.65
194.727	10.61
195.186	33.93
195.644	-4.31
196.103	32.53
196.561	33.93
197.019	9.68
197.478	-2.45
197.936	-2.92
198.394	-8.98
198.853	8.75
199.311	4.08
199.769	15.74
200.227	101.57
200.685	106.23
201.143	118.36
201.601	127.69
202.059	94.1
202.517	120.69
202.975	131.42
203.433	136.08
203.89	101.57
204.348	85.71
204.806	114.16
205.264	95.04
205.721	115.56
206.179	78.25
206.636	114.63
207.094	49.33
207.551	72.18
208.009	103.43
208.466	98.77
208.924	100.63
209.381	82.91
209.838	75.91
210.295	113.23
210.753	127.69
211.21	107.63
211.667	121.62
212.124	101.57
212.581	137.48
213.038	138.88
213.495	119.76
213.952	104.37
214.409	95.04
214.866	113.23
215.322	103.43
215.779	71.72
216.236	111.83
216.692	107.63
217.149	114.63
217.606	92.24
218.062	94.57
218.519	111.83
218.975	116.03
219.432	104.83
219.888	73.58
220.344	54.92
220.801	86.64
221.257	85.71
221.713	65.65
222.17	93.17
222.626	90.37
223.082	109.96
223.538	95.97
223.994	92.71
224.45	115.56
224.906	99.7
225.362	90.37
225.818	144.95
226.274	140.28
226.729	81.98
227.185	99.24
227.641	91.31
228.096	126.29
228.552	107.16
229.008	118.36
229.463	120.69
229.919	81.98
230.374	114.16
230.83	86.18
231.285	62.85
231.74	135.62
232.196	68.92
232.651	103.43
233.106	108.1
233.562	93.64
234.017	81.98
234.472	131.89
234.927	112.76
235.382	112.3
235.837	107.63
236.292	89.91
236.747	90.84
237.202	123.02
237.657	138.88
238.111	102.5
238.566	87.57
239.021	118.36
239.475	145.88
239.93	133.29
240.385	98.77
240.839	110.9
241.294	122.09
241.748	111.36
242.203	101.57
242.657	138.42
243.111	126.76
243.566	132.35
244.02	130.49
244.474	101.1
244.928	76.85
245.383	101.57
245.837	94.57
246.291	123.02
246.745	97.84
247.199	86.18
247.653	109.5
248.107	74.98
248.561	67.52
249.014	79.64
249.468	102.5
249.922	103.43
250.376	71.72
250.829	105.77
251.283	118.36
251.736	105.77
252.19	129.09
252.643	111.36
253.097	109.96
253.55	91.77
254.004	119.29
254.457	106.7
254.91	71.72
255.364	149.14
255.817	98.77
256.27	85.24
256.723	60.99
257.176	132.82
257.629	120.69
258.082	63.79
258.535	108.1
258.988	122.56
259.441	90.37
259.894	95.97
260.347	118.36
260.8	81.04
261.252	88.97
261.705	150.54
262.158	114.16
262.61	99.7
263.063	108.1
263.515	145.88
263.968	165.94
264.42	74.98
264.873	116.96
265.325	112.3
265.777	99.7
266.23	80.58
266.682	103.43
267.134	135.15
267.586	147.28
268.038	126.29
268.49	125.36
268.942	95.97
269.394	147.28
269.846	97.37
270.298	69.38
270.75	81.04
271.202	94.1
271.654	126.76
272.106	146.35
272.557	106.7
273.009	101.57
273.461	134.22
273.912	105.3
274.364	81.04
274.815	95.04
275.267	76.85
275.718	64.72
276.169	115.56
276.621	112.76
277.072	76.85
277.523	126.29
277.974	115.56
278.426	128.62
278.877	121.62
279.328	111.36
279.779	115.09
280.23	108.1
280.681	110.9
281.132	90.84
281.583	103.9
282.034	131.42
282.484	81.51
282.935	144.01
283.386	125.36
283.836	141.68
284.287	99.7
284.738	112.76
285.188	80.58
285.639	126.76
286.089	131.42
286.54	71.72
286.99	101.57
287.44	74.51
287.891	109.5
288.341	89.44
288.791	101.57
289.241	110.43
289.691	99.7
290.142	89.91
290.592	86.18
291.042	66.12
291.492	77.31
291.942	98.3
292.391	94.1
292.841	96.9
293.291	121.16
293.741	94.57
294.191	108.56
294.64	94.1
295.09	87.11
295.539	84.31
295.989	95.97
296.439	75.91
296.888	122.09
297.337	120.23
297.787	98.3
298.236	93.17
298.686	88.04
299.135	111.36
299.584	102.97
300.033	114.63
300.482	87.57
300.931	95.5
301.38	136.08
301.829	118.36
302.278	100.17
302.727	119.76
303.176	88.04
303.625	97.37
304.074	91.77
304.523	108.56
304.971	115.56
305.42	148.68
305.869	127.69
306.317	113.7
306.766	131.42
307.214	148.68
307.663	141.68
308.111	134.22
308.56	122.56
309.008	108.1
309.456	83.38
309.905	99.24
310.353	82.91
310.801	116.49
311.249	110.9
311.697	91.77
312.145	174.33
312.593	83.38
313.041	92.24
313.489	124.89
313.937	86.18
314.385	86.64
314.833	85.24
315.28	144.48
315.728	91.77
316.176	102.97
316.623	99.7
317.071	143.08
317.519	83.38
317.966	79.64
318.414	124.89
318.861	130.95
319.308	74.51
319.756	126.76
320.203	108.1
320.65	121.16
321.097	131.89
321.545	143.08
321.992	151.01
322.439	110.9
322.886	123.49
323.333	94.1
323.78	107.16
324.227	117.89
324.674	111.36
325.12	130.49
325.567	158.01
326.014	97.37
326.461	81.04
326.907	90.37
327.354	127.22
327.8	109.5
328.247	79.64
328.693	102.03
329.14	106.7
329.586	69.85
330.033	82.44
330.479	34.4
330.925	95.04
331.372	127.22
331.818	111.36
332.264	119.29
332.71	127.69
333.156	106.7
333.602	110.43
334.048	126.76
334.494	113.23
334.94	105.77
335.386	118.83
335.832	106.7
336.277	104.37
336.723	126.76
337.169	141.22
337.614	112.3
338.06	109.03
338.505	74.98
338.951	89.91
339.396	101.1
339.842	118.36
340.287	110.9
340.733	124.89
341.178	108.1
341.623	111.36
342.068	100.17
342.514	121.16
342.959	121.16
343.404	102.5
343.849	111.36
344.294	131.89
344.739	116.49
345.184	100.63
345.629	146.81
346.073	148.21
346.518	142.61
346.963	110.43
347.408	116.96
347.852	123.96
348.297	189.26
348.741	144.95
349.186	133.75
349.63	150.08
350.075	128.62
350.519	161.74
350.964	137.95
351.408	140.75
351.852	126.76
352.296	184.59
352.741	141.68
353.185	130.95
353.629	141.68
354.073	166.87
354.517	150.54
354.961	165
355.405	130.49
355.849	124.89
356.293	145.41
356.736	172.93
357.18	140.28
357.624	182.73
358.067	172.93
358.511	144.01
358.955	155.67
359.398	185.06
359.842	167.8
360.285	181.8
360.729	157.54
361.172	182.73
361.615	181.8
362.059	158.01
362.502	171.07
362.945	150.08
363.388	166.4
363.831	156.14
364.274	181.33
364.717	213.05
365.16	145.41
365.603	178.06
366.046	208.38
366.489	194.86
366.932	190.19
367.375	213.05
367.817	173.4
368.26	174.33
368.703	163.6
369.145	181.33
369.588	253.16
370.03	180.4
370.473	214.45
370.915	225.64
371.357	203.25
371.8	237.77
372.242	223.78
372.684	239.63
373.127	220.51
373.569	223.78
374.011	236.37
374.453	232.64
374.895	231.24
375.337	236.84
375.779	194.86
376.221	273.68
376.663	280.68
377.104	229.37
377.546	268.55
377.988	273.68
378.43	254.09
378.871	248.5
379.313	238.7
379.754	237.77
380.196	269.49
380.637	238.7
381.079	242.43
381.52	259.22
381.961	282.08
382.403	328.72
382.844	278.82
383.285	253.63
383.726	288.61
384.167	304.47
384.608	281.15
385.049	274.62
385.49	341.78
385.931	322.19
386.372	301.67
386.813	327.79
387.254	377.23
387.695	351.58
388.135	337.59
388.576	356.71
389.017	346.92
389.457	377.7
389.898	329.66
390.338	372.1
390.779	340.39
391.219	338.05
391.66	432.27
392.1	366.04
392.54	403.36
392.98	387.96
393.421	371.64
393.861	382.37
394.301	397.76
394.741	418.75
395.181	394.96
395.621	415.95
396.061	399.62
396.501	422.95
396.94	444.4
397.38	436.01
397.82	452.33
398.26	464.93
398.699	457.46
399.139	509.24
399.579	459.33
400.018	480.78
400.458	474.72
400.897	481.25
401.336	477.52
401.776	503.64
402.215	501.77
402.654	482.65
403.094	501.31
403.533	543.75
403.972	497.11
404.411	554.48
404.85	588.07
405.289	592.73
405.728	575.94
406.167	576.4
406.606	577.8
407.045	560.55
407.483	635.64
407.922	629.58
408.361	651.04
408.799	644.97
409.238	646.37
409.677	670.63
410.115	654.3
410.554	702.34
410.992	648.7
411.43	694.41
411.869	732.2
412.307	738.26
412.745	721.93
413.183	729.4
413.622	740.13
414.06	756.92
414.498	769.98
414.936	736.39
415.374	761.58
415.812	778.84
416.25	857.67
416.687	795.63
417.125	807.76
417.563	804.49
418.001	831.55
418.438	870.26
418.876	897.32
419.314	830.15
419.751	854.4
420.189	897.78
420.626	850.67
421.063	937.43
421.501	935.1
421.938	978.01
422.375	956.09
422.813	924.37
423.25	963.08
423.687	970.55
424.124	982.21
424.561	995.27
424.998	1026.52
425.435	1027.92
425.872	1032.12
426.309	1000.87
426.746	1096.49
427.182	1096.49
427.619	1058.24
428.056	1147.8
428.492	1120.28
428.929	1129.14
429.366	1117.94
429.802	1203.77
430.239	1171.58
430.675	1215.9
431.111	1210.3
431.548	1240.15
431.984	1294.26
432.42	1329.71
432.856	1313.38
433.293	1317.11
433.729	1333.91
434.165	1339.04
434.601	1393.14
435.037	1404.34
435.473	1416.93
435.909	1470.57
436.344	1478.5
436.78	1486.9
437.216	1469.64
437.652	1521.41
438.087	1524.68
438.523	1535.41
438.958	1535.87
439.394	1596.51
439.829	1631.03
440.265	1632.43
440.7	1673.94
441.136	1669.74
441.571	1636.63
442.006	1733.18
442.441	1803.15
442.877	1763.5
443.312	1766.76
443.747	1781.69
444.182	1828.33
444.617	1873.58
445.052	1907.16
445.487	1851.66
445.921	1891.77
446.356	1959.4
446.791	1928.62
447.226	1978.06
447.66	1918.36
448.095	2006.98
448.53	2034.97
448.964	2105.87
449.399	2107.73
449.833	2093.74
450.267	2149.24
450.702	2140.85
451.136	2217.81
451.57	2286.38
452.004	2305.04
452.439	2270.52
452.873	2277.98
453.307	2331.16
453.741	2336.29
454.175	2380.13
454.609	2398.79
455.043	2451.5
455.477	2490.21
455.91	2562.05
456.344	2546.19
456.778	2600.76
457.211	2677.72
457.645	2632.94
458.079	2727.17
458.512	2774.74
458.946	2778.47
459.379	2839.58
459.813	2863.37
460.246	2892.29
460.679	2955.72
461.112	3024.76
461.546	3044.81
461.979	3046.21
462.412	3120.38
462.845	3096.59
463.278	3238.39
463.711	3296.69
464.144	3375.99
464.577	3381.12
465.01	3449.22
465.442	3486.07
465.875	3552.77
466.308	3699.7
466.741	3702.03
467.173	3790.19
467.606	3913.79
468.038	3911.46
468.471	3972.1
468.903	4102.7
469.336	4195.06
469.768	4320.06
470.2	4311.67
470.633	4372.3
471.065	4476.79
471.497	4576.61
471.929	4806.56
472.361	4814.49
472.793	4942.3
473.225	5060.77
473.657	5096.69
474.089	5274.87
474.521	5305.65
474.953	5425.53
475.384	5586.45
475.816	5724.05
476.248	5873.78
476.679	5966.6
477.111	6058.02
477.542	6171.37
477.974	6343.48
478.405	6391.99
478.837	6623.35
479.268	6774.94
479.699	6740.89
480.131	6976.91
480.562	7086.99
480.993	7250.71
481.424	7347.73
481.855	7581.42
482.286	7666.78
482.717	7768.46
483.148	7827.7
483.579	7963.9
484.01	8076.31
484.44	8226.97
484.871	8410.75
485.302	8509.64
485.733	8684.55
486.163	8811.43
486.594	8907.98
487.024	9015.26
487.455	9116.94
487.885	9316.12
488.315	9417.8
488.746	9605.78
489.176	9733.58
489.606	9843.66
490.036	9920.16
490.467	10040.5
490.897	10165.97
491.327	10260.19
491.757	10358.14
492.187	10592.3
492.617	10714.51
493.046	10805.93
493.476	10885.69
493.906	11104.45
494.336	11131.5
494.765	11332.54
495.195	11381.52
495.625	11515.39
496.054	11615.2
496.484	11773.79
496.913	11934.25
497.342	11847.03
497.772	12058.79
498.201	12228.11
498.63	12196.86
499.06	12498.18
499.489	12441.27
499.918	12733.73
500.347	12923.11
500.776	12953.42
501.205	13060.24
501.634	13239.35
502.063	13383.95
502.492	13440.86
502.92	13474.91
503.349	13674.08
503.778	13662.41
504.206	13800.02
504.635	13991.72
505.064	14105.07
505.492	14309.84
505.921	14281.38
506.349	14377.94
506.777	14473.09
507.206	14781.87
507.634	14786.54
508.062	14890.55
508.49	15131.24
508.919	15178.35
509.347	15354.2
509.775	15394.78
510.203	15490.4
510.631	15744.14
511.059	15756.27
511.486	16042.2
511.914	16051.99
512.342	16216.65
512.77	16279.15
513.197	16459.2
513.625	16635.51
514.053	16533.83
514.48	16863.6
514.908	16997
515.335	17156.06
515.762	17240.02
516.19	17413.54
516.617	17532.01
517.044	17581.45
517.472	17920.56
517.899	17825.87
518.326	18056.76
518.753	18349.22
519.18	18463.96
519.607	18405.66
520.034	18546.52
520.461	18734.96
520.887	19019.49
521.314	19033.95
521.741	19072.2
522.168	19162.69
522.594	19366.06
523.021	19611.41
523.447	19726.15
523.874	19839.5
524.3	19825.97
524.727	20117.5
525.153	20177.2
525.579	20308.27
526.006	20287.28
526.432	20566.21
526.858	20598.4
527.284	20729.93
527.71	20944.96
528.136	20945.9
528.562	21188.45
528.988	21336.31
529.414	21302.72
529.84	21451.98
530.266	21672.14
530.692	21795.29
531.117	22075.15
531.543	22042.03
531.968	22117.6
532.394	22199.69
532.82	22395.13
533.245	22488.88
533.67	22634.88
534.096	22735.16
534.521	23057.94
534.946	22967.45
535.372	23091.99
535.797	23235.66
536.222	23417.1
536.647	23501.53
537.072	23683.44
537.497	23883.08
537.922	23815.44
538.347	23963.3
538.772	24254.36
539.196	24185.8
539.621	24572.01
540.046	24572.01
540.471	24542.62
540.895	24902.25
541.32	25098.16
541.744	24943.3
542.169	25138.74
542.593	25215.7
543.017	25401.34
543.442	25612.17
543.866	25695.2
544.29	25859.39
544.715	25939.62
545.139	26108.47
545.563	26316.03
545.987	26441.04
546.411	26381.34
546.835	26729.77
547.259	26892.56
547.682	27029.69
548.106	27019.43
548.53	27341.74
548.954	27405.64
549.377	27632.8
549.801	27577.29
550.225	27687.37
550.648	28114.17
551.071	28085.71
551.495	28348.32
551.918	28426.21
552.342	28523.23
552.765	28557.28
553.188	28852.08
553.611	28918.31
554.034	29084.36
554.457	29298.46
554.881	29496.23
555.304	29237.82
555.726	29806.88
556.149	29798.02
556.572	29957.54
556.995	30008.85
557.418	30218.28
557.84	30277.05
558.263	30409.52
558.686	30516.8
559.108	30357.75
559.531	30865.7
559.953	31001.44
560.376	31158.63
560.798	31179.15
561.22	31143.7
561.643	31361.06
562.065	31697.37
562.487	31786.46
562.909	31874.15
563.331	32242.17
563.753	32417.09
564.175	32533.7
564.597	32882.13
565.019	32824.76
565.441	32895.19
565.863	33244.09
566.284	33272.07
566.706	33534.21
567.128	33632.17
567.549	34094.41
567.971	34220.35
568.392	34246.47
568.814	34701.72
569.235	35057.14
569.657	35208.74
570.078	35372.46
570.499	35571.16
570.92	35991.89
571.341	36397.7
571.763	36663.57
572.184	36982.15
572.605	36979.35
573.026	37710.73
573.447	37704.66
573.867	38046.1
574.288	38360.01
574.709	38330.16
575.13	38413.66
575.55	38896.42
575.971	38848.38
576.392	38863.3
576.812	39070.4
577.233	39074.6
577.653	38806.4
578.074	39097.92
578.494	38909.95
578.914	39086.26
579.334	39238.79
579.755	39162.29
580.175	39112.85
580.595	39113.78
581.015	38988.78
581.435	39138.04
581.855	38890.36
582.275	39040.09
582.695	39017.23
583.114	39057.81
583.534	39041.49
583.954	39088.13
584.374	39370.33
584.793	38885.69
585.213	38964.99
585.632	38875.9
586.052	39021.89
586.471	39316.22
586.891	39212.2
587.31	38926.27
587.729	39175.35
588.148	39124.05
588.568	39085.8
588.987	39473.88
589.406	39211.74
589.825	39425.83
590.244	39355.87
590.663	39330.21
591.082	39596.08
591.5	39633.87
591.919	39719.22
592.338	39659.52
592.757	39846.1
593.175	40111.97
593.594	40238.37
594.012	40204.79
594.431	40235.11
594.849	40422.62
595.268	40617.59
595.686	40637.65
596.104	40901.19
596.523	41030.86
596.941	41105.49
597.359	41653.09
597.777	41397.01
598.195	41386.75
598.613	41890.04
599.031	42299.11
599.449	42309.84
599.867	42501.55
600.285	42634.02
600.702	43001.57
601.12	43218.47
601.538	43381.25
601.955	43941.92
602.373	43888.74
602.79	44178.4
603.208	44391.1
603.625	44757.26
604.043	44769.85
604.46	45363.63
604.877	45647.69
605.295	45635.57
605.712	46342.69
606.129	46539.06
606.546	46822.66
606.963	47143.57
607.38	47174.36
607.797	47628.2
608.214	47585.76
608.631	47985.03
609.047	48210.32
609.464	48353.52
609.881	48664.64
610.297	48773.78
610.714	48929.11
611.13	48656.71
611.547	49306.46
611.963	49055.05
612.38	49047.58
612.796	49108.22
613.212	49043.85
613.629	49382.49
614.045	49281.27
614.461	49378.29
614.877	49208.97
615.293	49183.32
615.709	48999.07
616.125	48833.49
616.541	49083.03
616.957	49062.98
617.373	48770.52
617.788	48808.77
618.204	48586.74
618.62	48579.74
619.035	48410.89
619.451	48358.18
619.866	48116.57
620.282	48118.9
620.697	47658.05
621.112	47847.43
621.528	47834.37
621.943	47658.52
622.358	47919.26
622.773	47474.74
623.188	47310.09
623.604	47207.01
624.019	47537.71
624.433	47399.65
624.848	47093.66
625.263	47214.47
625.678	47033.96
626.093	47007.37
626.508	46833.85
626.922	47035.82
627.337	46908.48
627.751	47028.36
628.166	46655.21
628.58	46786.74
628.995	46748.03
629.409	46617.42
629.823	46868.84
630.238	46803.07
630.652	46521.8
631.066	46302.11
631.48	46591.77
631.894	46284.39
632.308	46819.39
632.722	46456.04
633.136	46197.16
633.55	46401
633.964	46267.59
634.377	46399.6
634.791	46369.74
635.205	46347.82
635.618	46269.46
636.032	46338.49
636.446	46408.46
636.859	46196.69
637.272	46151.45
637.686	46106.67
638.099	46430.38
638.512	46074.02
638.926	46315.17
639.339	46239.61
639.752	46541.86
640.165	46086.61
640.578	46301.64
640.991	46232.61
641.404	46197.16
641.817	46205.56
642.229	46456.97
642.642	46259.66
643.055	46504.08
643.468	46209.75
643.88	46502.21
644.293	46452.3
644.705	46303.51
645.118	46186.9
645.53	46253.13
645.943	46392.6
646.355	46442.04
646.767	46411.26
647.179	46209.75
647.591	46493.82
648.004	46152.85
648.416	46471.43
648.828	46447.64
649.24	46461.63
649.652	46456.5
650.063	46377.67
650.475	46393.53
650.887	46352.49
651.299	46234.48
651.71	46255.93
652.122	46476.56
652.533	46337.09
652.945	46794.21
653.356	46500.35
653.768	46283.92
654.179	46386.54
654.591	46678.99
655.002	46372.08
655.413	46562.85
655.824	46352.95
656.235	46470.03
656.646	46463.97
657.057	46552.59
657.468	46621.16
657.879	46427.58
658.29	46741.96
658.701	46404.26
659.112	46405.66
659.522	46432.25
659.933	46769.95
660.344	46282.52
660.754	46514.81
661.165	46564.72
661.575	46454.17
661.985	46441.11
662.396	46446.71
662.806	46276.46
663.216	46414.06
663.627	46602.96
664.037	46171.51
664.447	46297.91
664.857	46410.79
665.267	46390.27
665.677	46389.8
666.087	46549.79
666.496	46457.9
666.906	46421.52
667.316	46316.1
667.726	46493.82
668.135	46148.65
668.545	46259.2
668.954	46497.08
669.364	46529.27
669.773	46374.87
670.183	46193.9
670.592	46224.21
671.001	46052.1
671.411	46332.9
671.82	46175.24
672.229	46152.38
672.638	46190.16
673.047	46132.33
673.456	46113.67
673.865	45939.69
674.274	46057.23
674.683	46067.49
675.092	45985.4
675.5	45900.04
675.909	45945.28
676.318	45886.04
676.726	45914.03
677.135	45879.05
677.543	46012.92
677.952	46044.63
678.36	45802.08
678.768	45847.33
679.176	45672.88
679.585	45770.83
679.993	45899.1
680.401	45861.32
680.809	45666.35
681.217	45546.01
681.625	45740.05
682.033	45779.7
682.441	45376.22
682.849	45500.76
683.256	45641.63
683.664	45353.83
684.072	45600.58
684.479	45499.36
684.887	45409.34
685.294	45250.75
685.702	45390.22
686.109	45407.01
686.517	45176.12
686.924	45128.54
687.331	45275.01
687.738	45052.05
688.146	45269.41
688.553	45015.66
688.96	45111.75
689.367	45040.39
689.774	44924.71
690.18	44871.07
690.587	45132.74
690.994	44946.17
691.401	45067.44
691.808	44863.61
692.214	44960.62
692.621	44695.69
693.027	45053.91
693.434	44738.13
693.84	44723.67
694.247	44678.89
694.653	44559.95
695.059	44690.09
695.465	44687.29
695.872	44641.58
696.278	44594.93
696.684	44321.13
697.09	44421.42
697.496	44461.53
697.902	44305.74
698.307	44325.8
698.713	44433.08
699.119	44050.13
699.525	44333.73
699.93	44130.83
700.336	44069.72
